 I_abs(s)[cm^-1]/c[mg/ml]
       0.00000          0.150296E-01
      0.100000E-02      0.150282E-01
      0.200000E-02      0.150237E-01
      0.300000E-02      0.150164E-01
      0.400000E-02      0.150061E-01
      0.500000E-02      0.149928E-01
      0.600000E-02      0.149766E-01
      0.700000E-02      0.149576E-01
      0.800000E-02      0.149356E-01
      0.900000E-02      0.149107E-01
      0.100000E-01      0.148829E-01
      0.110000E-01      0.148523E-01
      0.120000E-01      0.148188E-01
      0.130000E-01      0.147826E-01
      0.140000E-01      0.147435E-01
      0.150000E-01      0.147016E-01
      0.160000E-01      0.146570E-01
      0.170000E-01      0.146097E-01
      0.180000E-01      0.145596E-01
      0.190000E-01      0.145069E-01
      0.200000E-01      0.144516E-01
      0.210000E-01      0.143936E-01
      0.220000E-01      0.143331E-01
      0.230000E-01      0.142701E-01
      0.240000E-01      0.142045E-01
      0.250000E-01      0.141365E-01
      0.260000E-01      0.140661E-01
      0.270000E-01      0.139933E-01
      0.280000E-01      0.139182E-01
      0.290000E-01      0.138407E-01
      0.300000E-01      0.137610E-01
      0.310000E-01      0.136792E-01
      0.320000E-01      0.135951E-01
      0.330000E-01      0.135090E-01
      0.340000E-01      0.134207E-01
      0.350000E-01      0.133305E-01
      0.360000E-01      0.132383E-01
      0.370000E-01      0.131442E-01
      0.380000E-01      0.130483E-01
      0.390000E-01      0.129505E-01
      0.400000E-01      0.128510E-01
      0.410000E-01      0.127498E-01
      0.420000E-01      0.126469E-01
      0.430000E-01      0.125425E-01
      0.440000E-01      0.124365E-01
      0.450000E-01      0.123291E-01
      0.460000E-01      0.122202E-01
      0.470000E-01      0.121100E-01
      0.480000E-01      0.119985E-01
      0.490000E-01      0.118857E-01
      0.500000E-01      0.117717E-01
      0.510000E-01      0.116567E-01
      0.520000E-01      0.115405E-01
      0.530000E-01      0.114233E-01
      0.540000E-01      0.113052E-01
      0.550000E-01      0.111862E-01
      0.560000E-01      0.110663E-01
      0.570000E-01      0.109456E-01
      0.580000E-01      0.108243E-01
      0.590000E-01      0.107022E-01
      0.600000E-01      0.105796E-01
      0.610000E-01      0.104564E-01
      0.620000E-01      0.103327E-01
      0.630000E-01      0.102086E-01
      0.640000E-01      0.100841E-01
      0.650000E-01      0.995927E-02
      0.660000E-01      0.983417E-02
      0.670000E-01      0.970885E-02
      0.680000E-01      0.958338E-02
      0.690000E-01      0.945779E-02
      0.700000E-01      0.933215E-02
      0.710000E-01      0.920651E-02
      0.720000E-01      0.908092E-02
      0.730000E-01      0.895542E-02
      0.740000E-01      0.883007E-02
      0.750000E-01      0.870491E-02
      0.760000E-01      0.858000E-02
      0.770000E-01      0.845539E-02
      0.780000E-01      0.833111E-02
      0.790000E-01      0.820721E-02
      0.800000E-01      0.808374E-02
      0.810000E-01      0.796074E-02
      0.820000E-01      0.783826E-02
      0.830000E-01      0.771633E-02
      0.840000E-01      0.759499E-02
      0.850000E-01      0.747429E-02
      0.860000E-01      0.735426E-02
      0.870000E-01      0.723495E-02
      0.880000E-01      0.711637E-02
      0.890000E-01      0.699858E-02
      0.900000E-01      0.688160E-02
      0.910000E-01      0.676547E-02
      0.920000E-01      0.665021E-02
      0.930000E-01      0.653587E-02
      0.940000E-01      0.642246E-02
      0.950000E-01      0.631002E-02
      0.960000E-01      0.619857E-02
      0.970000E-01      0.608813E-02
      0.980000E-01      0.597874E-02
      0.990000E-01      0.587042E-02
      0.100000          0.576318E-02
      0.101000          0.565706E-02
      0.102000          0.555206E-02
      0.103000          0.544821E-02
      0.104000          0.534552E-02
      0.105000          0.524402E-02
      0.106000          0.514371E-02
      0.107000          0.504461E-02
      0.108000          0.494674E-02
      0.109000          0.485010E-02
      0.110000          0.475471E-02
      0.111000          0.466058E-02
      0.112000          0.456771E-02
      0.113000          0.447611E-02
      0.114000          0.438579E-02
      0.115000          0.429676E-02
      0.116000          0.420902E-02
      0.117000          0.412257E-02
      0.118000          0.403742E-02
      0.119000          0.395356E-02
      0.120000          0.387100E-02
      0.121000          0.378975E-02
      0.122000          0.370979E-02
      0.123000          0.363112E-02
      0.124000          0.355375E-02
      0.125000          0.347767E-02
      0.126000          0.340288E-02
      0.127000          0.332936E-02
      0.128000          0.325713E-02
      0.129000          0.318616E-02
      0.130000          0.311645E-02
      0.131000          0.304800E-02
      0.132000          0.298079E-02
      0.133000          0.291482E-02
      0.134000          0.285008E-02
      0.135000          0.278656E-02
      0.136000          0.272424E-02
      0.137000          0.266312E-02
      0.138000          0.260318E-02
      0.139000          0.254441E-02
      0.140000          0.248681E-02
      0.141000          0.243035E-02
      0.142000          0.237502E-02
      0.143000          0.232081E-02
      0.144000          0.226771E-02
      0.145000          0.221570E-02
      0.146000          0.216477E-02
      0.147000          0.211490E-02
      0.148000          0.206608E-02
      0.149000          0.201829E-02
      0.150000          0.197151E-02
      0.151000          0.192574E-02
      0.152000          0.188095E-02
      0.153000          0.183712E-02
      0.154000          0.179426E-02
      0.155000          0.175232E-02
      0.156000          0.171131E-02
      0.157000          0.167121E-02
      0.158000          0.163199E-02
      0.159000          0.159364E-02
      0.160000          0.155615E-02
      0.161000          0.151950E-02
      0.162000          0.148367E-02
      0.163000          0.144864E-02
      0.164000          0.141441E-02
      0.165000          0.138095E-02
      0.166000          0.134825E-02
      0.167000          0.131630E-02
      0.168000          0.128507E-02
      0.169000          0.125455E-02
      0.170000          0.122473E-02
      0.171000          0.119560E-02
      0.172000          0.116712E-02
      0.173000          0.113930E-02
      0.174000          0.111212E-02
      0.175000          0.108556E-02
      0.176000          0.105961E-02
      0.177000          0.103425E-02
      0.178000          0.100947E-02
      0.179000          0.985259E-03
      0.180000          0.961601E-03
      0.181000          0.938484E-03
      0.182000          0.915894E-03
      0.183000          0.893819E-03
      0.184000          0.872247E-03
      0.185000          0.851166E-03
      0.186000          0.830564E-03
      0.187000          0.810429E-03
      0.188000          0.790750E-03
      0.189000          0.771516E-03
      0.190000          0.752717E-03
      0.191000          0.734341E-03
      0.192000          0.716380E-03
      0.193000          0.698822E-03
      0.194000          0.681658E-03
      0.195000          0.664879E-03
      0.196000          0.648475E-03
      0.197000          0.632438E-03
      0.198000          0.616759E-03
      0.199000          0.601430E-03
      0.200000          0.586442E-03
      0.201000          0.571788E-03
      0.202000          0.557460E-03
      0.203000          0.543451E-03
      0.204000          0.529753E-03
      0.205000          0.516360E-03
      0.206000          0.503265E-03
      0.207000          0.490462E-03
      0.208000          0.477943E-03
      0.209000          0.465704E-03
      0.210000          0.453738E-03
      0.211000          0.442040E-03
      0.212000          0.430604E-03
      0.213000          0.419426E-03
      0.214000          0.408499E-03
      0.215000          0.397819E-03
      0.216000          0.387382E-03
      0.217000          0.377183E-03
      0.218000          0.367217E-03
      0.219000          0.357480E-03
      0.220000          0.347968E-03
      0.221000          0.338678E-03
      0.222000          0.329605E-03
      0.223000          0.320746E-03
      0.224000          0.312097E-03
      0.225000          0.303655E-03
      0.226000          0.295416E-03
      0.227000          0.287378E-03
      0.228000          0.279536E-03
      0.229000          0.271889E-03
      0.230000          0.264433E-03
      0.231000          0.257165E-03
      0.232000          0.250082E-03
      0.233000          0.243182E-03
      0.234000          0.236463E-03
      0.235000          0.229921E-03
      0.236000          0.223554E-03
      0.237000          0.217360E-03
      0.238000          0.211336E-03
      0.239000          0.205480E-03
      0.240000          0.199790E-03
      0.241000          0.194262E-03
      0.242000          0.188896E-03
      0.243000          0.183688E-03
      0.244000          0.178638E-03
      0.245000          0.173741E-03
      0.246000          0.168996E-03
      0.247000          0.164402E-03
      0.248000          0.159956E-03
      0.249000          0.155655E-03
      0.250000          0.151498E-03
      0.251000          0.147483E-03
      0.252000          0.143607E-03
      0.253000          0.139868E-03
      0.254000          0.136265E-03
      0.255000          0.132795E-03
      0.256000          0.129455E-03
      0.257000          0.126245E-03
      0.258000          0.123162E-03
      0.259000          0.120203E-03
      0.260000          0.117366E-03
      0.261000          0.114650E-03
      0.262000          0.112052E-03
      0.263000          0.109570E-03
      0.264000          0.107202E-03
      0.265000          0.104945E-03
      0.266000          0.102798E-03
      0.267000          0.100757E-03
      0.268000          0.988222E-04
      0.269000          0.969897E-04
      0.270000          0.952577E-04
      0.271000          0.936238E-04
      0.272000          0.920859E-04
      0.273000          0.906417E-04
      0.274000          0.892888E-04
      0.275000          0.880250E-04
      0.276000          0.868481E-04
      0.277000          0.857556E-04
      0.278000          0.847453E-04
      0.279000          0.838149E-04
      0.280000          0.829622E-04
      0.281000          0.821848E-04
      0.282000          0.814804E-04
      0.283000          0.808467E-04
      0.284000          0.802814E-04
      0.285000          0.797822E-04
      0.286000          0.793470E-04
      0.287000          0.789733E-04
      0.288000          0.786590E-04
      0.289000          0.784017E-04
      0.290000          0.781994E-04
      0.291000          0.780496E-04
      0.292000          0.779503E-04
      0.293000          0.778993E-04
      0.294000          0.778944E-04
      0.295000          0.779335E-04
      0.296000          0.780145E-04
      0.297000          0.781351E-04
      0.298000          0.782935E-04
      0.299000          0.784875E-04
      0.300000          0.787151E-04
      0.301000          0.789743E-04
      0.302000          0.792632E-04
      0.303000          0.795798E-04
      0.304000          0.799223E-04
      0.305000          0.802888E-04
      0.306000          0.806774E-04
      0.307000          0.810864E-04
      0.308000          0.815140E-04
      0.309000          0.819585E-04
      0.310000          0.824181E-04
      0.311000          0.828914E-04
      0.312000          0.833767E-04
      0.313000          0.838724E-04
      0.314000          0.843769E-04
      0.315000          0.848888E-04
      0.316000          0.854067E-04
      0.317000          0.859293E-04
      0.318000          0.864550E-04
      0.319000          0.869827E-04
      0.320000          0.875111E-04
      0.321000          0.880389E-04
      0.322000          0.885650E-04
      0.323000          0.890882E-04
      0.324000          0.896074E-04
      0.325000          0.901218E-04
      0.326000          0.906300E-04
      0.327000          0.911313E-04
      0.328000          0.916248E-04
      0.329000          0.921095E-04
      0.330000          0.925847E-04
      0.331000          0.930495E-04
      0.332000          0.935034E-04
      0.333000          0.939453E-04
      0.334000          0.943749E-04
      0.335000          0.947915E-04
      0.336000          0.951944E-04
      0.337000          0.955832E-04
      0.338000          0.959573E-04
      0.339000          0.963164E-04
      0.340000          0.966598E-04
      0.341000          0.969874E-04
      0.342000          0.972988E-04
      0.343000          0.975936E-04
      0.344000          0.978715E-04
      0.345000          0.981324E-04
      0.346000          0.983759E-04
      0.347000          0.986020E-04
      0.348000          0.988105E-04
      0.349000          0.990013E-04
      0.350000          0.991744E-04
      0.351000          0.993295E-04
      0.352000          0.994668E-04
      0.353000          0.995863E-04
      0.354000          0.996878E-04
      0.355000          0.997716E-04
      0.356000          0.998376E-04
      0.357000          0.998860E-04
      0.358000          0.999170E-04
      0.359000          0.999305E-04
      0.360000          0.999269E-04
      0.361000          0.999063E-04
      0.362000          0.998688E-04
      0.363000          0.998148E-04
      0.364000          0.997444E-04
      0.365000          0.996579E-04
      0.366000          0.995554E-04
      0.367000          0.994375E-04
      0.368000          0.993042E-04
      0.369000          0.991560E-04
      0.370000          0.989931E-04
      0.371000          0.988159E-04
      0.372000          0.986247E-04
      0.373000          0.984197E-04
      0.374000          0.982015E-04
      0.375000          0.979703E-04
      0.376000          0.977266E-04
      0.377000          0.974705E-04
      0.378000          0.972027E-04
      0.379000          0.969233E-04
      0.380000          0.966329E-04
      0.381000          0.963318E-04
      0.382000          0.960203E-04
      0.383000          0.956989E-04
      0.384000          0.953680E-04
      0.385000          0.950279E-04
      0.386000          0.946790E-04
      0.387000          0.943217E-04
      0.388000          0.939565E-04
      0.389000          0.935837E-04
      0.390000          0.932036E-04
      0.391000          0.928167E-04
      0.392000          0.924234E-04
      0.393000          0.920240E-04
      0.394000          0.916188E-04
      0.395000          0.912083E-04
      0.396000          0.907929E-04
      0.397000          0.903728E-04
      0.398000          0.899486E-04
      0.399000          0.895204E-04
      0.400000          0.890887E-04
      0.401000          0.886537E-04
      0.402000          0.882159E-04
      0.403000          0.877755E-04
      0.404000          0.873330E-04
      0.405000          0.868885E-04
      0.406000          0.864425E-04
      0.407000          0.859951E-04
      0.408000          0.855468E-04
      0.409000          0.850978E-04
      0.410000          0.846484E-04
      0.411000          0.841988E-04
      0.412000          0.837494E-04
      0.413000          0.833004E-04
      0.414000          0.828521E-04
      0.415000          0.824047E-04
      0.416000          0.819584E-04
      0.417000          0.815134E-04
      0.418000          0.810702E-04
      0.419000          0.806290E-04
      0.420000          0.801898E-04
      0.421000          0.797527E-04
      0.422000          0.793183E-04
      0.423000          0.788866E-04
      0.424000          0.784577E-04
      0.425000          0.780319E-04
      0.426000          0.776094E-04
      0.427000          0.771903E-04
      0.428000          0.767748E-04
      0.429000          0.763630E-04
      0.430000          0.759551E-04
      0.431000          0.755513E-04
      0.432000          0.751515E-04
      0.433000          0.747562E-04
      0.434000          0.743653E-04
      0.435000          0.739789E-04
      0.436000          0.735972E-04
      0.437000          0.732204E-04
      0.438000          0.728484E-04
      0.439000          0.724814E-04
      0.440000          0.721195E-04
      0.441000          0.717628E-04
      0.442000          0.714113E-04
      0.443000          0.710652E-04
      0.444000          0.707245E-04
      0.445000          0.703893E-04
      0.446000          0.700596E-04
      0.447000          0.697356E-04
      0.448000          0.694171E-04
      0.449000          0.691043E-04
      0.450000          0.687972E-04
      0.451000          0.684959E-04
      0.452000          0.682005E-04
      0.453000          0.679109E-04
      0.454000          0.676271E-04
      0.455000          0.673492E-04
      0.456000          0.670772E-04
      0.457000          0.668111E-04
      0.458000          0.665509E-04
      0.459000          0.662966E-04
      0.460000          0.660483E-04
      0.461000          0.658060E-04
      0.462000          0.655694E-04
      0.463000          0.653389E-04
      0.464000          0.651141E-04
      0.465000          0.648952E-04
      0.466000          0.646822E-04
      0.467000          0.644751E-04
      0.468000          0.642737E-04
      0.469000          0.640780E-04
      0.470000          0.638881E-04
      0.471000          0.637039E-04
      0.472000          0.635253E-04
      0.473000          0.633522E-04
      0.474000          0.631847E-04
      0.475000          0.630227E-04
      0.476000          0.628661E-04
      0.477000          0.627149E-04
      0.478000          0.625691E-04
      0.479000          0.624286E-04
      0.480000          0.622931E-04
      0.481000          0.621629E-04
      0.482000          0.620378E-04
      0.483000          0.619175E-04
      0.484000          0.618023E-04
      0.485000          0.616918E-04
      0.486000          0.615861E-04
      0.487000          0.614851E-04
      0.488000          0.613887E-04
      0.489000          0.612968E-04
      0.490000          0.612093E-04
      0.491000          0.611262E-04
      0.492000          0.610472E-04
      0.493000          0.609725E-04
      0.494000          0.609018E-04
      0.495000          0.608352E-04
      0.496000          0.607724E-04
      0.497000          0.607134E-04
      0.498000          0.606580E-04
      0.499000          0.606064E-04
      0.500000          0.605582E-04
