 I_abs(s)[cm^-1]/c[mg/ml]
       0.00000          0.272228E-01
      0.100000E-02      0.272189E-01
      0.200000E-02      0.272072E-01
      0.300000E-02      0.271876E-01
      0.400000E-02      0.271603E-01
      0.500000E-02      0.271252E-01
      0.600000E-02      0.270824E-01
      0.700000E-02      0.270319E-01
      0.800000E-02      0.269737E-01
      0.900000E-02      0.269079E-01
      0.100000E-01      0.268345E-01
      0.110000E-01      0.267536E-01
      0.120000E-01      0.266653E-01
      0.130000E-01      0.265697E-01
      0.140000E-01      0.264667E-01
      0.150000E-01      0.263565E-01
      0.160000E-01      0.262392E-01
      0.170000E-01      0.261149E-01
      0.180000E-01      0.259837E-01
      0.190000E-01      0.258456E-01
      0.200000E-01      0.257008E-01
      0.210000E-01      0.255494E-01
      0.220000E-01      0.253916E-01
      0.230000E-01      0.252274E-01
      0.240000E-01      0.250569E-01
      0.250000E-01      0.248804E-01
      0.260000E-01      0.246979E-01
      0.270000E-01      0.245096E-01
      0.280000E-01      0.243157E-01
      0.290000E-01      0.241162E-01
      0.300000E-01      0.239113E-01
      0.310000E-01      0.237013E-01
      0.320000E-01      0.234862E-01
      0.330000E-01      0.232662E-01
      0.340000E-01      0.230414E-01
      0.350000E-01      0.228121E-01
      0.360000E-01      0.225785E-01
      0.370000E-01      0.223406E-01
      0.380000E-01      0.220987E-01
      0.390000E-01      0.218529E-01
      0.400000E-01      0.216034E-01
      0.410000E-01      0.213504E-01
      0.420000E-01      0.210941E-01
      0.430000E-01      0.208347E-01
      0.440000E-01      0.205723E-01
      0.450000E-01      0.203071E-01
      0.460000E-01      0.200393E-01
      0.470000E-01      0.197691E-01
      0.480000E-01      0.194967E-01
      0.490000E-01      0.192222E-01
      0.500000E-01      0.189459E-01
      0.510000E-01      0.186680E-01
      0.520000E-01      0.183885E-01
      0.530000E-01      0.181077E-01
      0.540000E-01      0.178258E-01
      0.550000E-01      0.175429E-01
      0.560000E-01      0.172592E-01
      0.570000E-01      0.169750E-01
      0.580000E-01      0.166903E-01
      0.590000E-01      0.164054E-01
      0.600000E-01      0.161204E-01
      0.610000E-01      0.158355E-01
      0.620000E-01      0.155508E-01
      0.630000E-01      0.152666E-01
      0.640000E-01      0.149829E-01
      0.650000E-01      0.147000E-01
      0.660000E-01      0.144180E-01
      0.670000E-01      0.141370E-01
      0.680000E-01      0.138572E-01
      0.690000E-01      0.135787E-01
      0.700000E-01      0.133017E-01
      0.710000E-01      0.130263E-01
      0.720000E-01      0.127527E-01
      0.730000E-01      0.124809E-01
      0.740000E-01      0.122111E-01
      0.750000E-01      0.119435E-01
      0.760000E-01      0.116781E-01
      0.770000E-01      0.114151E-01
      0.780000E-01      0.111545E-01
      0.790000E-01      0.108965E-01
      0.800000E-01      0.106412E-01
      0.810000E-01      0.103887E-01
      0.820000E-01      0.101391E-01
      0.830000E-01      0.989239E-02
      0.840000E-01      0.964874E-02
      0.850000E-01      0.940823E-02
      0.860000E-01      0.917091E-02
      0.870000E-01      0.893687E-02
      0.880000E-01      0.870618E-02
      0.890000E-01      0.847889E-02
      0.900000E-01      0.825506E-02
      0.910000E-01      0.803475E-02
      0.920000E-01      0.781800E-02
      0.930000E-01      0.760487E-02
      0.940000E-01      0.739540E-02
      0.950000E-01      0.718962E-02
      0.960000E-01      0.698756E-02
      0.970000E-01      0.678926E-02
      0.980000E-01      0.659473E-02
      0.990000E-01      0.640400E-02
      0.100000          0.621709E-02
      0.101000          0.603401E-02
      0.102000          0.585476E-02
      0.103000          0.567935E-02
      0.104000          0.550779E-02
      0.105000          0.534007E-02
      0.106000          0.517619E-02
      0.107000          0.501613E-02
      0.108000          0.485988E-02
      0.109000          0.470743E-02
      0.110000          0.455876E-02
      0.111000          0.441385E-02
      0.112000          0.427267E-02
      0.113000          0.413519E-02
      0.114000          0.400139E-02
      0.115000          0.387122E-02
      0.116000          0.374466E-02
      0.117000          0.362166E-02
      0.118000          0.350218E-02
      0.119000          0.338619E-02
      0.120000          0.327364E-02
      0.121000          0.316447E-02
      0.122000          0.305864E-02
      0.123000          0.295611E-02
      0.124000          0.285681E-02
      0.125000          0.276069E-02
      0.126000          0.266770E-02
      0.127000          0.257778E-02
      0.128000          0.249087E-02
      0.129000          0.240692E-02
      0.130000          0.232586E-02
      0.131000          0.224764E-02
      0.132000          0.217218E-02
      0.133000          0.209943E-02
      0.134000          0.202933E-02
      0.135000          0.196181E-02
      0.136000          0.189680E-02
      0.137000          0.183425E-02
      0.138000          0.177408E-02
      0.139000          0.171624E-02
      0.140000          0.166066E-02
      0.141000          0.160727E-02
      0.142000          0.155601E-02
      0.143000          0.150682E-02
      0.144000          0.145962E-02
      0.145000          0.141437E-02
      0.146000          0.137098E-02
      0.147000          0.132941E-02
      0.148000          0.128959E-02
      0.149000          0.125145E-02
      0.150000          0.121495E-02
      0.151000          0.118000E-02
      0.152000          0.114657E-02
      0.153000          0.111459E-02
      0.154000          0.108400E-02
      0.155000          0.105474E-02
      0.156000          0.102676E-02
      0.157000          0.100002E-02
      0.158000          0.974440E-03
      0.159000          0.949985E-03
      0.160000          0.926600E-03
      0.161000          0.904237E-03
      0.162000          0.882845E-03
      0.163000          0.862379E-03
      0.164000          0.842792E-03
      0.165000          0.824039E-03
      0.166000          0.806079E-03
      0.167000          0.788867E-03
      0.168000          0.772364E-03
      0.169000          0.756531E-03
      0.170000          0.741330E-03
      0.171000          0.726723E-03
      0.172000          0.712676E-03
      0.173000          0.699155E-03
      0.174000          0.686127E-03
      0.175000          0.673560E-03
      0.176000          0.661426E-03
      0.177000          0.649695E-03
      0.178000          0.638340E-03
      0.179000          0.627334E-03
      0.180000          0.616654E-03
      0.181000          0.606275E-03
      0.182000          0.596176E-03
      0.183000          0.586334E-03
      0.184000          0.576731E-03
      0.185000          0.567346E-03
      0.186000          0.558164E-03
      0.187000          0.549167E-03
      0.188000          0.540339E-03
      0.189000          0.531666E-03
      0.190000          0.523136E-03
      0.191000          0.514735E-03
      0.192000          0.506452E-03
      0.193000          0.498277E-03
      0.194000          0.490200E-03
      0.195000          0.482212E-03
      0.196000          0.474305E-03
      0.197000          0.466474E-03
      0.198000          0.458710E-03
      0.199000          0.451009E-03
      0.200000          0.443365E-03
      0.201000          0.435776E-03
      0.202000          0.428236E-03
      0.203000          0.420744E-03
      0.204000          0.413296E-03
      0.205000          0.405891E-03
      0.206000          0.398529E-03
      0.207000          0.391207E-03
      0.208000          0.383925E-03
      0.209000          0.376685E-03
      0.210000          0.369486E-03
      0.211000          0.362328E-03
      0.212000          0.355214E-03
      0.213000          0.348144E-03
      0.214000          0.341120E-03
      0.215000          0.334145E-03
      0.216000          0.327220E-03
      0.217000          0.320348E-03
      0.218000          0.313531E-03
      0.219000          0.306772E-03
      0.220000          0.300074E-03
      0.221000          0.293440E-03
      0.222000          0.286872E-03
      0.223000          0.280375E-03
      0.224000          0.273950E-03
      0.225000          0.267601E-03
      0.226000          0.261331E-03
      0.227000          0.255143E-03
      0.228000          0.249041E-03
      0.229000          0.243027E-03
      0.230000          0.237104E-03
      0.231000          0.231275E-03
      0.232000          0.225543E-03
      0.233000          0.219911E-03
      0.234000          0.214381E-03
      0.235000          0.208956E-03
      0.236000          0.203638E-03
      0.237000          0.198429E-03
      0.238000          0.193332E-03
      0.239000          0.188348E-03
      0.240000          0.183479E-03
      0.241000          0.178727E-03
      0.242000          0.174094E-03
      0.243000          0.169580E-03
      0.244000          0.165187E-03
      0.245000          0.160916E-03
      0.246000          0.156767E-03
      0.247000          0.152741E-03
      0.248000          0.148839E-03
      0.249000          0.145062E-03
      0.250000          0.141408E-03
      0.251000          0.137879E-03
      0.252000          0.134473E-03
      0.253000          0.131191E-03
      0.254000          0.128032E-03
      0.255000          0.124996E-03
      0.256000          0.122081E-03
      0.257000          0.119287E-03
      0.258000          0.116612E-03
      0.259000          0.114056E-03
      0.260000          0.111616E-03
      0.261000          0.109292E-03
      0.262000          0.107082E-03
      0.263000          0.104984E-03
      0.264000          0.102996E-03
      0.265000          0.101116E-03
      0.266000          0.993425E-04
      0.267000          0.976730E-04
      0.268000          0.961052E-04
      0.269000          0.946369E-04
      0.270000          0.932657E-04
      0.271000          0.919892E-04
      0.272000          0.908047E-04
      0.273000          0.897098E-04
      0.274000          0.887017E-04
      0.275000          0.877779E-04
      0.276000          0.869356E-04
      0.277000          0.861722E-04
      0.278000          0.854848E-04
      0.279000          0.848706E-04
      0.280000          0.843270E-04
      0.281000          0.838510E-04
      0.282000          0.834398E-04
      0.283000          0.830909E-04
      0.284000          0.828012E-04
      0.285000          0.825681E-04
      0.286000          0.823887E-04
      0.287000          0.822603E-04
      0.288000          0.821804E-04
      0.289000          0.821460E-04
      0.290000          0.821547E-04
      0.291000          0.822038E-04
      0.292000          0.822906E-04
      0.293000          0.824128E-04
      0.294000          0.825678E-04
      0.295000          0.827533E-04
      0.296000          0.829668E-04
      0.297000          0.832061E-04
      0.298000          0.834688E-04
      0.299000          0.837529E-04
      0.300000          0.840560E-04
      0.301000          0.843762E-04
      0.302000          0.847115E-04
      0.303000          0.850597E-04
      0.304000          0.854193E-04
      0.305000          0.857883E-04
      0.306000          0.861649E-04
      0.307000          0.865475E-04
      0.308000          0.869346E-04
      0.309000          0.873245E-04
      0.310000          0.877157E-04
      0.311000          0.881069E-04
      0.312000          0.884967E-04
      0.313000          0.888838E-04
      0.314000          0.892670E-04
      0.315000          0.896452E-04
      0.316000          0.900173E-04
      0.317000          0.903825E-04
      0.318000          0.907394E-04
      0.319000          0.910874E-04
      0.320000          0.914257E-04
      0.321000          0.917535E-04
      0.322000          0.920700E-04
      0.323000          0.923745E-04
      0.324000          0.926665E-04
      0.325000          0.929454E-04
      0.326000          0.932108E-04
      0.327000          0.934621E-04
      0.328000          0.936990E-04
      0.329000          0.939211E-04
      0.330000          0.941280E-04
      0.331000          0.943196E-04
      0.332000          0.944956E-04
      0.333000          0.946559E-04
      0.334000          0.948002E-04
      0.335000          0.949284E-04
      0.336000          0.950404E-04
      0.337000          0.951362E-04
      0.338000          0.952158E-04
      0.339000          0.952793E-04
      0.340000          0.953265E-04
      0.341000          0.953576E-04
      0.342000          0.953727E-04
      0.343000          0.953718E-04
      0.344000          0.953551E-04
      0.345000          0.953228E-04
      0.346000          0.952751E-04
      0.347000          0.952120E-04
      0.348000          0.951338E-04
      0.349000          0.950407E-04
      0.350000          0.949329E-04
      0.351000          0.948107E-04
      0.352000          0.946742E-04
      0.353000          0.945238E-04
      0.354000          0.943598E-04
      0.355000          0.941823E-04
      0.356000          0.939917E-04
      0.357000          0.937883E-04
      0.358000          0.935724E-04
      0.359000          0.933443E-04
      0.360000          0.931042E-04
      0.361000          0.928524E-04
      0.362000          0.925893E-04
      0.363000          0.923153E-04
      0.364000          0.920303E-04
      0.365000          0.917352E-04
      0.366000          0.914298E-04
      0.367000          0.911144E-04
      0.368000          0.907897E-04
      0.369000          0.904557E-04
      0.370000          0.901129E-04
      0.371000          0.897615E-04
      0.372000          0.894018E-04
      0.373000          0.890342E-04
      0.374000          0.886589E-04
      0.375000          0.882763E-04
      0.376000          0.878865E-04
      0.377000          0.874900E-04
      0.378000          0.870871E-04
      0.379000          0.866780E-04
      0.380000          0.862630E-04
      0.381000          0.858424E-04
      0.382000          0.854165E-04
      0.383000          0.849856E-04
      0.384000          0.845499E-04
      0.385000          0.841098E-04
      0.386000          0.836655E-04
      0.387000          0.832173E-04
      0.388000          0.827655E-04
      0.389000          0.823102E-04
      0.390000          0.818520E-04
      0.391000          0.813909E-04
      0.392000          0.809275E-04
      0.393000          0.804616E-04
      0.394000          0.799938E-04
      0.395000          0.795243E-04
      0.396000          0.790534E-04
      0.397000          0.785812E-04
      0.398000          0.781083E-04
      0.399000          0.776345E-04
      0.400000          0.771605E-04
      0.401000          0.766863E-04
      0.402000          0.762122E-04
      0.403000          0.757385E-04
      0.404000          0.752655E-04
      0.405000          0.747933E-04
      0.406000          0.743223E-04
      0.407000          0.738527E-04
      0.408000          0.733849E-04
      0.409000          0.729189E-04
      0.410000          0.724552E-04
      0.411000          0.719938E-04
      0.412000          0.715350E-04
      0.413000          0.710791E-04
      0.414000          0.706264E-04
      0.415000          0.701772E-04
      0.416000          0.697315E-04
      0.417000          0.692897E-04
      0.418000          0.688520E-04
      0.419000          0.684185E-04
      0.420000          0.679898E-04
      0.421000          0.675658E-04
      0.422000          0.671466E-04
      0.423000          0.667327E-04
      0.424000          0.663242E-04
      0.425000          0.659213E-04
      0.426000          0.655243E-04
      0.427000          0.651334E-04
      0.428000          0.647485E-04
      0.429000          0.643703E-04
      0.430000          0.639986E-04
      0.431000          0.636337E-04
      0.432000          0.632756E-04
      0.433000          0.629245E-04
      0.434000          0.625808E-04
      0.435000          0.622444E-04
      0.436000          0.619157E-04
      0.437000          0.615947E-04
      0.438000          0.612814E-04
      0.439000          0.609761E-04
      0.440000          0.606788E-04
      0.441000          0.603897E-04
      0.442000          0.601089E-04
      0.443000          0.598363E-04
      0.444000          0.595724E-04
      0.445000          0.593169E-04
      0.446000          0.590700E-04
      0.447000          0.588318E-04
      0.448000          0.586022E-04
      0.449000          0.583816E-04
      0.450000          0.581697E-04
      0.451000          0.579666E-04
      0.452000          0.577723E-04
      0.453000          0.575869E-04
      0.454000          0.574104E-04
      0.455000          0.572427E-04
      0.456000          0.570839E-04
      0.457000          0.569338E-04
      0.458000          0.567925E-04
      0.459000          0.566600E-04
      0.460000          0.565361E-04
      0.461000          0.564208E-04
      0.462000          0.563141E-04
      0.463000          0.562159E-04
      0.464000          0.561261E-04
      0.465000          0.560448E-04
      0.466000          0.559715E-04
      0.467000          0.559064E-04
      0.468000          0.558493E-04
      0.469000          0.558000E-04
      0.470000          0.557585E-04
      0.471000          0.557247E-04
      0.472000          0.556983E-04
      0.473000          0.556793E-04
      0.474000          0.556674E-04
      0.475000          0.556626E-04
      0.476000          0.556645E-04
      0.477000          0.556733E-04
      0.478000          0.556886E-04
      0.479000          0.557102E-04
      0.480000          0.557380E-04
      0.481000          0.557717E-04
      0.482000          0.558112E-04
      0.483000          0.558565E-04
      0.484000          0.559070E-04
      0.485000          0.559628E-04
      0.486000          0.560237E-04
      0.487000          0.560892E-04
      0.488000          0.561594E-04
      0.489000          0.562339E-04
      0.490000          0.563126E-04
      0.491000          0.563954E-04
      0.492000          0.564819E-04
      0.493000          0.565719E-04
      0.494000          0.566654E-04
      0.495000          0.567620E-04
      0.496000          0.568614E-04
      0.497000          0.569636E-04
      0.498000          0.570683E-04
      0.499000          0.571752E-04
      0.500000          0.572843E-04
